Z-Pos[um]|R[MOhm]|I[pA]
100,000    106,413    1410
99,990    106,565    1408
99,980    105,954    1416
99,970    106,316    1411
99,960    106,229    1412
99,950    106,119    1414
99,940    106,321    1411
99,930    106,334    1411
99,920    106,403    1410
99,910    106,514    1408
99,900    106,298    1411
99,890    106,096    1414
99,880    106,671    1406
99,870    106,311    1411
99,860    106,132    1413
99,850    106,403    1410
99,840    106,426    1409
99,830    106,247    1412
99,820    106,454    1409
99,810    106,385    1410
99,800    106,288    1411
99,790    106,201    1412
99,780    106,114    1414
99,770    106,380    1410
99,760    106,399    1410
99,750    106,459    1409
99,740    106,426    1409
99,730    106,288    1411
99,720    106,390    1410
99,710    106,459    1409
99,700    106,394    1410
99,690    106,376    1410
99,680    106,505    1408
99,670    106,348    1410
99,660    106,463    1409
99,650    106,426    1409
99,640    106,344    1411
99,630    106,321    1411
99,620    106,482    1409
99,610    106,413    1410
99,600    106,417    1410
99,590    106,279    1411
99,580    106,091    1414
99,570    106,344    1411
99,560    106,403    1410
99,550    106,036    1415
99,540    106,288    1411
99,530    106,238    1412
99,520    106,298    1411
99,510    106,431    1409
99,500    106,000    1415
99,490    106,330    1411
99,480    106,187    1413
99,470    106,091    1414
99,460    106,279    1411
99,450    106,059    1414
99,440    106,482    1409
99,430    106,978    1402
99,420    106,625    1407
99,410    106,385    1410
99,400    106,699    1406
99,390    106,834    1404
99,380    106,344    1411
99,370    106,293    1411
99,360    106,242    1412
99,350    106,109    1414
99,340    106,348    1410
99,330    106,242    1412
99,320    106,178    1413
99,310    106,229    1412
99,300    106,114    1414
99,290    106,445    1409
99,280    106,298    1411
99,270    106,018    1415
99,260    106,321    1411
99,250    106,316    1411
99,240    106,408    1410
99,230    106,197    1412
99,220    106,027    1415
99,210    106,270    1411
99,200    106,321    1411
99,190    106,334    1411
99,180    106,169    1413
99,170    106,036    1415
99,160    106,330    1411
99,150    106,210    1412
99,140    106,284    1411
99,130    106,560    1408
99,120    106,201    1412
99,110    106,334    1411
99,100    106,288    1411
99,090    106,477    1409
99,080    106,132    1413
99,070    106,123    1413
99,060    106,105    1414
99,050    106,505    1408
99,040    106,293    1411
99,030    106,325    1411
99,020    106,252    1412
99,010    106,279    1411
99,000    106,509    1408
98,990    106,537    1408
98,980    106,413    1410
98,970    106,371    1410
98,960    106,667    1406
98,950    106,454    1409
98,940    106,311    1411
98,930    106,279    1411
98,920    106,206    1412
98,910    106,210    1412
98,900    106,445    1409
98,890    106,018    1415
98,880    106,206    1412
98,870    106,275    1411
98,860    106,169    1413
98,850    106,371    1410
98,840    106,068    1414
98,830    106,431    1409
98,820    106,169    1413
98,810    106,210    1412
98,800    106,339    1411
98,790    106,087    1414
98,780    106,265    1412
98,770    106,288    1411
98,760    106,087    1414
98,750    106,307    1411
98,740    106,032    1415
98,730    105,990    1415
98,720    106,413    1410
98,710    106,091    1414
98,700    106,160    1413
98,690    106,105    1414
98,680    106,077    1414
98,670    106,597    1407
98,660    106,279    1411
98,650    106,454    1409
98,640    106,311    1411
98,630    106,293    1411
98,620    106,376    1410
98,610    106,275    1411
98,600    106,073    1414
98,590    106,417    1410
98,580    106,077    1414
98,570    106,334    1411
98,560    106,321    1411
98,550    106,105    1414
98,540    106,353    1410
98,530    106,128    1413
98,520    106,330    1411
98,510    106,270    1411
98,500    106,045    1414
98,490    106,316    1411
98,480    106,357    1410
98,470    106,164    1413
98,460    106,302    1411
98,450    105,977    1415
98,440    106,242    1412
98,430    106,348    1410
98,420    106,123    1413
98,410    106,293    1411
98,400    106,109    1414
98,390    106,137    1413
98,380    106,528    1408
98,370    106,091    1414
98,360    106,247    1412
98,350    106,141    1413
98,340    106,178    1413
98,330    106,546    1408
98,320    106,210    1412
98,310    106,261    1412
98,300    106,215    1412
98,290    106,247    1412
98,280    106,468    1409
98,270    106,242    1412
98,260    106,128    1413
98,250    106,247    1412
98,240    106,178    1413
98,230    106,256    1412
98,220    106,109    1414
98,210    106,307    1411
98,200    106,261    1412
98,190    106,087    1414
98,180    106,528    1408
98,170    106,357    1410
98,160    106,155    1413
98,150    106,376    1410
98,140    106,146    1413
98,130    106,459    1409
98,120    106,307    1411
98,110    106,027    1415
98,100    106,422    1409
98,090    106,151    1413
98,080    106,413    1410
98,070    106,242    1412
98,060    105,981    1415
98,050    106,422    1409
98,040    106,367    1410
98,030    106,371    1410
98,020    106,261    1412
98,010    105,899    1416
98,000    106,201    1412
97,990    106,408    1410
97,980    106,183    1413
97,970    106,496    1409
97,960    106,174    1413
97,950    106,141    1413
97,940    106,367    1410
97,930    106,242    1412
97,920    106,311    1411
97,910    105,968    1416
97,900    106,041    1415
97,890    106,509    1408
97,880    106,032    1415
97,870    106,325    1411
97,860    106,187    1413
97,850    106,087    1414
97,840    106,376    1410
97,830    106,109    1414
97,820    106,339    1411
97,810    106,174    1413
97,800    106,128    1413
97,790    106,311    1411
97,780    106,215    1412
97,770    106,109    1414
97,760    106,123    1413
97,750    106,288    1411
97,740    106,215    1412
97,730    106,229    1412
97,720    106,334    1411
97,710    106,634    1407
97,700    106,334    1411
97,690    105,972    1415
97,680    106,183    1413
97,670    106,128    1413
97,660    106,426    1409
97,650    106,325    1411
97,640    106,087    1414
97,630    106,261    1412
97,620    106,229    1412
97,610    106,417    1410
97,600    106,348    1410
97,590    106,041    1415
97,580    106,252    1412
97,570    106,119    1414
97,560    106,298    1411
97,550    106,275    1411
97,540    106,068    1414
97,530    106,394    1410
97,520    106,059    1414
97,510    106,238    1412
97,500    106,334    1411
97,490    106,505    1408
97,480    106,187    1413
97,470    106,505    1408
97,460    106,059    1414
97,450    106,247    1412
97,440    106,032    1415
97,430    106,109    1414
97,420    106,298    1411
97,410    106,132    1413
97,400    105,986    1415
97,390    106,256    1412
97,380    106,321    1411
97,370    106,073    1414
97,360    106,224    1412
97,350    105,995    1415
97,340    106,238    1412
97,330    106,542    1408
97,320    106,068    1414
97,310    106,174    1413
97,300    106,100    1414
97,290    106,164    1413
97,280    106,445    1409
97,270    106,155    1413
97,260    106,192    1413
97,250    106,087    1414
97,240    106,215    1412
97,230    106,399    1410
97,220    106,298    1411
97,210    106,330    1411
97,200    106,100    1414
97,190    106,041    1415
97,180    106,367    1410
97,170    106,215    1412
97,160    105,995    1415
97,150    106,247    1412
97,140    106,238    1412
97,130    106,307    1411
97,120    106,486    1409
97,110    106,141    1413
97,100    106,330    1411
97,090    106,440    1409
97,080    106,367    1410
97,070    106,270    1411
97,060    106,050    1414
97,050    106,334    1411
97,040    106,556    1408
97,030    106,348    1410
97,020    106,542    1408
97,010    106,376    1410
97,000    106,298    1411
96,990    106,519    1408
96,980    106,514    1408
96,970    106,275    1411
96,960    106,491    1409
96,950    106,593    1407
96,940    106,270    1411
96,930    106,500    1408
96,920    106,570    1408
96,910    106,238    1412
96,900    106,344    1411
96,890    106,362    1410
96,880    106,210    1412
96,870    106,431    1409
96,860    106,380    1410
96,850    106,477    1409
96,840    106,197    1412
96,830    106,013    1415
96,820    106,321    1411
96,810    106,302    1411
96,800    106,302    1411
96,790    106,123    1413
96,780    106,256    1412
96,770    106,311    1411
96,760    106,224    1412
96,750    106,367    1410
96,740    106,183    1413
96,730    106,151    1413
96,720    106,146    1413
96,710    106,252    1412
96,700    106,302    1411
96,690    106,376    1410
96,680    106,119    1414
96,670    106,325    1411
96,660    106,371    1410
96,650    106,233    1412
96,640    106,261    1412
96,630    106,164    1413
96,620    106,261    1412
96,610    106,252    1412
96,600    106,000    1415
96,590    106,307    1411
96,580    106,041    1415
96,570    106,242    1412
96,560    106,307    1411
96,550    106,174    1413
96,540    106,265    1412
96,530    106,307    1411
96,520    106,137    1413
96,510    106,344    1411
96,500    106,192    1413
96,490    106,261    1412
96,480    106,210    1412
96,470    106,087    1414
96,460    106,339    1411
96,450    106,265    1412
96,440    106,293    1411
96,430    106,201    1412
96,420    106,339    1411
96,410    106,339    1411
96,400    106,311    1411
96,390    105,945    1416
96,380    106,105    1414
96,370    106,224    1412
96,360    106,321    1411
96,350    106,256    1412
96,340    106,054    1414
96,330    106,500    1408
96,320    106,298    1411
96,310    106,334    1411
96,300    106,233    1412
96,290    106,132    1413
96,280    106,344    1411
96,270    106,252    1412
96,260    106,210    1412
96,250    106,238    1412
96,240    106,155    1413
96,230    106,279    1411
96,220    106,722    1406
96,210    106,546    1408
96,200    106,616    1407
96,190    106,815    1404
96,180    106,871    1404
96,170    106,560    1408
96,160    106,690    1406
96,150    106,718    1406
96,140    106,755    1405
96,130    106,620    1407
96,120    106,542    1408
96,110    106,630    1407
96,100    106,413    1410
96,090    106,325    1411
96,080    106,256    1412
96,070    106,091    1414
96,060    106,302    1411
96,050    106,137    1413
96,040    106,298    1411
96,030    106,224    1412
96,020    106,279    1411
96,010    106,519    1408
96,000    106,694    1406
95,990    106,371    1410
95,980    106,362    1410
95,970    106,574    1407
95,960    106,450    1409
95,950    106,390    1410
95,940    106,380    1410
95,930    106,146    1413
95,920    106,247    1412
95,910    106,367    1410
95,900    106,219    1412
95,890    106,399    1410
95,880    106,371    1410
95,870    106,146    1413
95,860    106,431    1409
95,850    106,146    1413
95,840    106,325    1411
95,830    106,141    1413
95,820    106,219    1412
95,810    106,417    1410
95,800    106,137    1413
95,790    106,206    1412
95,780    106,073    1414
95,770    106,114    1414
95,760    106,436    1409
95,750    106,169    1413
95,740    106,252    1412
95,730    106,307    1411
95,720    105,954    1416
95,710    106,450    1409
95,700    106,229    1412
95,690    106,265    1412
95,680    106,233    1412
95,670    106,210    1412
95,660    106,316    1411
95,650    106,132    1413
95,640    106,137    1413
95,630    106,385    1410
95,620    106,256    1412
95,610    106,224    1412
95,600    106,187    1413
95,590    106,174    1413
95,580    106,353    1410
95,570    106,114    1414
95,560    106,380    1410
95,550    106,875    1404
95,540    106,353    1410
95,530    106,551    1408
95,520    106,759    1405
95,510    106,829    1404
95,500    106,690    1406
95,490    106,713    1406
95,480    106,894    1403
95,470    106,750    1405
95,460    106,875    1404
95,450    106,913    1403
95,440    106,344    1411
95,430    106,247    1412
95,420    106,183    1413
95,410    106,403    1410
95,400    106,334    1411
95,390    106,242    1412
95,380    106,334    1411
95,370    106,201    1412
95,360    106,367    1410
95,350    106,100    1414
95,340    106,178    1413
95,330    106,160    1413
95,320    106,087    1414
95,310    106,450    1409
95,300    106,123    1413
95,290    106,197    1412
95,280    106,330    1411
95,270    106,261    1412
95,260    106,247    1412
95,250    106,219    1412
95,240    106,041    1415
95,230    106,210    1412
95,220    106,096    1414
95,210    106,321    1411
95,200    106,252    1412
95,190    106,073    1414
95,180    106,316    1411
95,170    106,224    1412
95,160    106,371    1410
95,150    106,588    1407
95,140    106,385    1410
95,130    106,523    1408
95,120    106,718    1406
95,110    106,403    1410
95,100    106,367    1410
95,090    106,422    1409
95,080    106,579    1407
95,070    106,316    1411
95,060    106,371    1410
95,050    106,022    1415
95,040    106,192    1413
95,030    106,183    1413
95,020    106,215    1412
95,010    106,339    1411
95,000    105,995    1415
94,990    106,570    1408
94,980    106,256    1412
94,970    105,945    1416
94,960    106,348    1410
94,950    106,201    1412
94,940    106,105    1414
94,930    106,367    1410
94,920    106,091    1414
94,910    106,357    1410
94,900    106,307    1411
94,890    106,096    1414
94,880    106,334    1411
94,870    106,141    1413
94,860    106,119    1414
94,850    106,178    1413
94,840    106,256    1412
94,830    106,325    1411
94,820    106,284    1411
94,810    106,151    1413
94,800    106,390    1410
94,790    106,004    1415
94,780    106,639    1407
94,770    106,727    1405
94,760    106,385    1410
94,750    106,468    1409
94,740    106,685    1406
94,730    106,783    1405
94,720    106,620    1407
94,710    106,219    1412
94,700    106,450    1409
94,690    106,146    1413
94,680    106,334    1411
94,670    106,018    1415
94,660    106,137    1413
94,650    106,321    1411
94,640    106,123    1413
94,630    106,265    1412
94,620    106,178    1413
94,610    106,045    1414
94,600    106,450    1409
94,590    106,105    1414
94,580    106,215    1412
94,570    106,096    1414
94,560    106,215    1412
94,550    106,468    1409
94,540    106,151    1413
94,530    106,394    1410
94,520    106,146    1413
94,510    106,344    1411
94,500    106,463    1409
94,490    106,041    1415
94,480    106,252    1412
94,470    106,187    1413
94,460    106,064    1414
94,450    106,394    1410
94,440    106,325    1411
94,430    106,114    1414
94,420    106,279    1411
94,410    106,174    1413
94,400    106,426    1409
94,390    106,307    1411
94,380    106,146    1413
94,370    106,215    1412
94,360    106,082    1414
94,350    106,210    1412
94,340    106,330    1411
94,330    106,000    1415
94,320    106,298    1411
94,310    106,091    1414
94,300    106,399    1410
94,290    106,215    1412
94,280    106,018    1415
94,270    106,385    1410
94,260    106,256    1412
94,250    106,201    1412
94,240    106,242    1412
94,230    106,091    1414
94,220    106,242    1412
94,210    106,210    1412
94,200    106,229    1412
94,190    106,376    1410
94,180    106,155    1413
94,170    106,201    1412
94,160    106,298    1411
94,150    106,109    1414
94,140    106,192    1413
94,130    105,986    1415
94,120    105,972    1415
94,110    106,394    1410
94,100    106,013    1415
94,090    106,302    1411
94,080    106,100    1414
94,070    106,045    1414
94,060    106,298    1411
94,050    106,087    1414
94,040    106,394    1410
94,030    106,082    1414
94,020    106,348    1410
94,010    106,087    1414
94,000    106,353    1410
93,990    106,288    1411
93,980    106,261    1412
93,970    106,671    1406
93,960    106,611    1407
93,950    106,325    1411
93,940    106,413    1410
93,930    106,426    1409
93,920    106,339    1411
93,910    106,436    1409
93,900    106,519    1408
93,890    106,288    1411
93,880    106,602    1407
93,870    106,344    1411
93,860    106,311    1411
93,850    106,408    1410
93,840    106,718    1406
93,830    106,537    1408
93,820    106,252    1412
93,810    106,611    1407
93,800    106,367    1410
93,790    106,357    1410
93,780    106,574    1407
93,770    106,316    1411
93,760    106,390    1410
93,750    106,519    1408
93,740    106,224    1412
93,730    106,233    1412
93,720    106,316    1411
93,710    106,477    1409
93,700    106,307    1411
93,690    106,192    1413
93,680    106,100    1414
93,670    106,325    1411
93,660    106,174    1413
93,650    106,491    1409
93,640    106,408    1410
93,630    106,114    1414
93,620    106,316    1411
93,610    106,050    1414
93,600    106,334    1411
93,590    106,311    1411
93,580    105,917    1416
93,570    106,353    1410
93,560    106,137    1413
93,550    106,242    1412
93,540    106,316    1411
93,530    106,284    1411
93,520    106,302    1411
93,510    106,187    1413
93,500    106,169    1413
93,490    106,616    1407
93,480    106,114    1414
93,470    106,114    1414
93,460    106,431    1409
93,450    106,302    1411
93,440    106,261    1412
93,430    106,087    1414
93,420    106,004    1415
93,410    106,866    1404
93,400    106,773    1405
93,390    106,597    1407
93,380    106,574    1407
93,370    106,871    1404
93,360    106,796    1405
93,350    106,509    1408
93,340    106,773    1405
93,330    106,838    1404
93,320    106,380    1410
93,310    105,972    1415
93,300    106,307    1411
93,290    106,376    1410
93,280    106,169    1413
93,270    106,169    1413
93,260    106,054    1414
93,250    106,307    1411
93,240    106,334    1411
93,230    106,087    1414
93,220    106,183    1413
93,210    105,995    1415
93,200    106,178    1413
93,190    106,496    1409
93,180    106,174    1413
93,170    106,344    1411
93,160    106,224    1412
93,150    106,183    1413
93,140    106,436    1409
93,130    106,137    1413
93,120    106,178    1413
93,110    106,068    1414
93,100    106,073    1414
93,090    106,367    1410
93,080    106,210    1412
93,070    105,968    1416
93,060    106,302    1411
93,050    106,247    1412
93,040    106,298    1411
93,030    106,321    1411
93,020    106,871    1404
93,010    106,242    1412
93,000    106,496    1409
92,990    106,450    1409
92,980    105,977    1415
92,970    106,422    1409
92,960    106,032    1415
92,950    106,219    1412
92,940    106,265    1412
92,930    106,100    1414
92,920    106,339    1411
92,910    106,114    1414
92,900    106,284    1411
92,890    106,279    1411
92,880    106,114    1414
92,870    106,330    1411
92,860    106,192    1413
92,850    106,151    1413
92,840    106,334    1411
92,830    106,027    1415
92,820    106,206    1412
92,810    106,450    1409
92,800    106,137    1413
92,790    106,192    1413
92,780    106,100    1414
92,770    106,128    1413
92,760    106,408    1410
92,750    106,073    1414
92,740    106,151    1413
92,730    106,238    1412
92,720    106,662    1406
92,710    106,298    1411
92,700    106,440    1409
92,690    106,119    1414
92,680    106,509    1408
92,670    106,450    1409
92,660    106,288    1411
92,650    106,611    1407
92,640    106,694    1406
92,630    106,736    1405
92,620    106,579    1407
